wavelength	ITO	aSi_4nm	aSi_8nm	aSi_12nm	aSiC_12nm	aSiC_18nm
250.00	0.84	0.84	0.84	0.85	0.85	0.85
260.00	0.83	0.84	0.83	0.84	0.84	0.84
270.00	0.82	0.83	0.82	0.83	0.83	0.83
280.00	0.82	0.82	0.81	0.81	0.82	0.82
290.00	0.80	0.81	0.79	0.79	0.81	0.81
300.00	0.79	0.79	0.77	0.77	0.79	0.79
310.00	0.78	0.78	0.75	0.73	0.78	0.77
320.00	0.76	0.76	0.73	0.71	0.76	0.75
330.00	0.74	0.75	0.72	0.69	0.75	0.74
340.00	0.72	0.73	0.71	0.67	0.73	0.73
350.00	0.72	0.72	0.70	0.66	0.72	0.72
360.00	0.73	0.73	0.72	0.67	0.73	0.72
370.00	0.72	0.73	0.74	0.69	0.74	0.74
380.00	0.72	0.73	0.74	0.71	0.74	0.75
390.00	0.74	0.75	0.77	0.73	0.76	0.76
400.00	0.77	0.77	0.79	0.76	0.78	0.78
410.00	0.79	0.79	0.82	0.79	0.80	0.80
420.00	0.81	0.81	0.84	0.82	0.82	0.83
430.00	0.83	0.83	0.86	0.85	0.84	0.85
440.00	0.85	0.85	0.88	0.88	0.86	0.87
450.00	0.87	0.87	0.90	0.90	0.88	0.89
460.00	0.88	0.88	0.91	0.92	0.89	0.90
470.00	0.90	0.90	0.92	0.93	0.90	0.91
480.00	0.91	0.91	0.93	0.94	0.91	0.92
490.00	0.92	0.91	0.94	0.95	0.92	0.93
500.00	0.92	0.92	0.94	0.96	0.93	0.93
510.00	0.93	0.93	0.95	0.96	0.93	0.94
520.00	0.94	0.94	0.95	0.96	0.94	0.94
530.00	0.94	0.94	0.95	0.96	0.95	0.95
540.00	0.95	0.95	0.95	0.96	0.95	0.95
550.00	0.95	0.95	0.95	0.96	0.95	0.95
560.00	0.95	0.95	0.95	0.95	0.96	0.95
570.00	0.95	0.96	0.95	0.95	0.96	0.96
580.00	0.95	0.96	0.95	0.95	0.96	0.96
590.00	0.95	0.96	0.95	0.95	0.96	0.96
600.00	0.95	0.96	0.95	0.95	0.96	0.96
610.00	0.95	0.96	0.95	0.94	0.96	0.96
620.00	0.95	0.96	0.95	0.94	0.96	0.96
630.00	0.95	0.96	0.95	0.94	0.96	0.96
640.00	0.95	0.95	0.94	0.93	0.96	0.96
650.00	0.95	0.95	0.94	0.93	0.96	0.96
660.00	0.94	0.95	0.94	0.93	0.96	0.96
670.00	0.94	0.95	0.94	0.92	0.96	0.96
680.00	0.94	0.94	0.94	0.92	0.96	0.96
690.00	0.94	0.94	0.93	0.92	0.95	0.96
700.00	0.94	0.94	0.93	0.92	0.95	0.96
710.00	0.93	0.94	0.93	0.92	0.95	0.95
720.00	0.93	0.94	0.93	0.92	0.95	0.95
730.00	0.93	0.93	0.93	0.91	0.95	0.95
740.00	0.93	0.93	0.93	0.91	0.94	0.95
750.00	0.92	0.93	0.92	0.91	0.94	0.95
760.00	0.92	0.93	0.92	0.91	0.94	0.95
770.00	0.92	0.92	0.92	0.91	0.94	0.94
780.00	0.91	0.92	0.92	0.90	0.94	0.94
790.00	0.91	0.92	0.91	0.90	0.93	0.94
800.00	0.91	0.91	0.91	0.90	0.93	0.94
810.00	0.90	0.91	0.91	0.90	0.92	0.93
820.00	0.89	0.91	0.90	0.90	0.92	0.93
830.00	0.90	0.87	0.88	0.86	0.92	0.91
840.00	0.78	0.93	0.93	0.91	0.86	0.95
850.00	0.86	0.88	0.80	0.89	0.94	0.83
860.00	0.91	0.79	0.82	0.77	0.86	0.84
870.00	0.81	0.85	0.92	0.81	0.81	0.92
880.00	0.73	0.93	0.91	0.92	0.85	0.93
890.00	0.76	0.88	0.80	0.90	0.92	0.83
900.00	0.87	0.78	0.72	0.78	0.91	0.75
910.00	0.93	0.73	0.75	0.71	0.82	0.78
920.00	0.88	0.78	0.86	0.74	0.75	0.87
930.00	0.78	0.88	0.94	0.84	0.76	0.94
940.00	0.73	0.93	0.90	0.93	0.85	0.92
950.00	0.76	0.89	0.80	0.90	0.92	0.83
960.00	0.83	0.80	0.73	0.81	0.92	0.77
970.00	0.90	0.74	0.73	0.73	0.84	0.76
980.00	0.91	0.74	0.80	0.72	0.77	0.82
990.00	0.85	0.81	0.88	0.78	0.74	0.89
1000.00	0.79	0.88	0.92	0.86	0.78	0.93
1010.00	0.75	0.92	0.89	0.91	0.85	0.90
1020.00	0.76	0.88	0.81	0.89	0.91	0.83
1030.00	0.81	0.82	0.76	0.82	0.91	0.78
1040.00	0.87	0.76	0.74	0.76	0.87	0.76
1050.00	0.90	0.74	0.77	0.73	0.80	0.78
1060.00	0.89	0.77	0.83	0.75	0.76	0.84
1070.00	0.83	0.82	0.89	0.80	0.75	0.90
1080.00	0.77	0.88	0.91	0.86	0.79	0.92
1090.00	0.72	0.91	0.88	0.91	0.84	0.89
1100.00	0.70	0.88	0.82	0.89	0.89	0.83
1110.00	0.72	0.83	0.75	0.84	0.91	0.77
1120.00	0.77	0.76	0.71	0.77	0.88	0.72
1130.00	0.84	0.72	0.70	0.71	0.82	0.71
1140.00	0.89	0.70	0.72	0.69	0.76	0.73
1150.00	0.92	0.72	0.77	0.70	0.72	0.78
1160.00	0.89	0.76	0.84	0.73	0.71	0.84
1170.00	0.84	0.82	0.90	0.80	0.73	0.90
1180.00	0.77	0.88	0.92	0.86	0.77	0.93
1190.00	0.71	0.92	0.90	0.91	0.83	0.91
1200.00	0.67	0.91	0.84	0.91	0.89	0.86
1210.00	0.66	0.86	0.78	0.88	0.91	0.79
1220.00	0.67	0.79	0.72	0.81	0.90	0.73
1230.00	0.70	0.73	0.68	0.75	0.86	0.69
1240.00	0.75	0.69	0.66	0.69	0.80	0.67
1250.00	0.81	0.66	0.66	0.66	0.74	0.67
1260.00	0.87	0.66	0.69	0.65	0.69	0.69
1270.00	0.90	0.68	0.73	0.66	0.67	0.74
1280.00	0.91	0.72	0.79	0.69	0.66	0.79
1290.00	0.88	0.77	0.85	0.74	0.68	0.85
1300.00	0.83	0.83	0.89	0.80	0.71	0.89
1310.00	0.78	0.88	0.91	0.85	0.76	0.91
1320.00	0.73	0.90	0.90	0.89	0.82	0.90
1330.00	0.69	0.90	0.86	0.90	0.87	0.86
1340.00	0.67	0.87	0.80	0.88	0.90	0.81
1350.00	0.66	0.83	0.75	0.84	0.90	0.76
1360.00	0.66	0.77	0.71	0.79	0.88	0.72
1370.00	0.68	0.73	0.68	0.74	0.84	0.69
1380.00	0.71	0.69	0.66	0.70	0.79	0.67
1390.00	0.75	0.66	0.65	0.67	0.74	0.66
1400.00	0.79	0.66	0.66	0.66	0.70	0.67
1410.00	0.83	0.66	0.68	0.65	0.67	0.69
1420.00	0.86	0.67	0.72	0.66	0.66	0.72
1430.00	0.87	0.70	0.75	0.68	0.66	0.76
1440.00	0.87	0.73	0.80	0.72	0.67	0.80
1450.00	0.85	0.77	0.83	0.75	0.69	0.83
1460.00	0.83	0.81	0.86	0.79	0.72	0.86
1470.00	0.79	0.84	0.87	0.83	0.75	0.87
1480.00	0.75	0.87	0.87	0.86	0.79	0.87
1490.00	0.72	0.87	0.85	0.87	0.83	0.85
1500.00	0.70	0.86	0.82	0.87	0.85	0.82
