wavelength	n	k
250	2.417	0.366
255	2.413	0.3446
260	2.408	0.3241
265	2.402	0.3046
270	2.396	0.2861
275	2.39	0.2684
280	2.384	0.2515
285	2.377	0.2355
290	2.37	0.2202
295	2.363	0.2056
300	2.356	0.1917
305	2.349	0.1785
310	2.341	0.166
315	2.334	0.1541
320	2.326	0.1428
325	2.319	0.132
330	2.311	0.1218
335	2.303	0.1122
340	2.295	0.103
345	2.287	9.44E-02
350	2.28	8.62E-02
355	2.272	7.85E-02
360	2.264	7.13E-02
365	2.256	6.44E-02
370	2.249	5.80E-02
375	2.241	5.21E-02
380	2.233	4.65E-02
385	2.226	4.12E-02
390	2.218	3.64E-02
395	2.211	3.19E-02
400	2.203	2.78E-02
405	2.196	2.40E-02
410	2.189	2.05E-02
415	2.182	1.74E-02
420	2.175	1.45E-02
425	2.168	1.20E-02
430	2.161	9.79E-03
435	2.154	7.86E-03
440	2.148	6.22E-03
445	2.142	4.85E-03
450	2.135	3.75E-03
455	2.129	2.92E-03
460	2.124	2.34E-03
465	2.118	2.01E-03
470	2.113	1.94E-03
475	2.108	2.00E-03
480	2.103	2.07E-03
485	2.099	2.14E-03
490	2.095	2.21E-03
495	2.091	2.29E-03
500	2.087	2.36E-03
505	2.083	2.44E-03
510	2.08	2.51E-03
515	2.076	2.59E-03
520	2.073	2.67E-03
525	2.07	2.75E-03
530	2.066	2.84E-03
535	2.063	2.92E-03
540	2.06	3.01E-03
545	2.057	3.10E-03
550	2.054	3.19E-03
555	2.051	3.28E-03
560	2.049	3.37E-03
565	2.046	3.47E-03
570	2.043	3.57E-03
575	2.04	3.67E-03
580	2.038	3.77E-03
585	2.035	3.87E-03
590	2.033	3.98E-03
595	2.03	4.08E-03
600	2.028	4.19E-03
605	2.025	4.30E-03
610	2.023	4.41E-03
615	2.021	4.53E-03
620	2.018	4.64E-03
625	2.016	4.76E-03
630	2.014	4.88E-03
635	2.011	5.01E-03
640	2.009	5.13E-03
645	2.007	5.26E-03
650	2.005	5.39E-03
655	2.002	5.52E-03
660	2	5.65E-03
665	1.998	5.79E-03
670	1.996	5.92E-03
675	1.994	6.06E-03
680	1.992	6.20E-03
685	1.989	6.35E-03
690	1.987	6.49E-03
695	1.985	6.64E-03
700	1.983	6.79E-03
705	1.981	6.95E-03
710	1.979	7.10E-03
715	1.977	7.26E-03
720	1.975	7.42E-03
725	1.973	7.58E-03
730	1.971	7.75E-03
735	1.969	7.92E-03
740	1.967	8.09E-03
745	1.965	8.26E-03
750	1.963	8.44E-03
755	1.961	8.61E-03
760	1.959	8.80E-03
765	1.957	8.98E-03
770	1.955	9.16E-03
775	1.953	9.35E-03
780	1.95	9.54E-03
785	1.948	9.74E-03
790	1.946	9.93E-03
795	1.944	1.01E-02
800	1.942	1.03E-02
805	1.94	1.05E-02
810	1.938	1.08E-02
815	1.936	1.10E-02
820	1.934	1.12E-02
825	1.932	1.14E-02
830	1.93	1.16E-02
835	1.928	1.18E-02
840	1.926	1.21E-02
845	1.924	1.23E-02
850	1.922	1.25E-02
855	1.92	1.28E-02
860	1.918	1.30E-02
865	1.916	1.32E-02
870	1.914	1.35E-02
875	1.912	1.37E-02
880	1.91	1.40E-02
885	1.908	1.42E-02
890	1.906	1.45E-02
895	1.904	1.47E-02
900	1.902	1.50E-02
905	1.9	1.53E-02
910	1.898	1.55E-02
915	1.896	1.58E-02
920	1.893	1.61E-02
925	1.891	1.64E-02
930	1.889	1.67E-02
935	1.887	1.69E-02
940	1.885	1.72E-02
945	1.883	1.75E-02
950	1.881	1.78E-02
955	1.879	1.81E-02
960	1.877	1.84E-02
965	1.874	1.87E-02
970	1.872	1.91E-02
975	1.87	1.94E-02
980	1.868	1.97E-02
985	1.866	2.00E-02
990	1.864	2.03E-02
995	1.861	2.07E-02
1000	1.859	2.10E-02
1005	1.857	2.14E-02
1010	1.855	2.17E-02
1015	1.853	2.20E-02
1020	1.85	2.24E-02
1025	1.848	2.27E-02
1030	1.846	2.31E-02
1035	1.844	2.35E-02
1040	1.841	2.38E-02
1045	1.839	2.42E-02
1050	1.837	2.46E-02
1055	1.835	2.50E-02
1060	1.832	2.54E-02
1065	1.83	2.57E-02
1070	1.828	2.61E-02
1075	1.825	2.65E-02
1080	1.823	2.69E-02
1085	1.821	2.73E-02
1090	1.818	2.78E-02
1095	1.816	2.82E-02
1100	1.814	2.86E-02
1105	1.811	2.90E-02
1110	1.809	2.95E-02
1115	1.807	2.99E-02
1120	1.804	3.03E-02
1125	1.802	3.08E-02
1130	1.799	3.12E-02
1135	1.797	3.17E-02
1140	1.795	3.21E-02
1145	1.792	3.26E-02
1150	1.79	3.31E-02
1155	1.787	3.35E-02
1160	1.785	3.40E-02
1165	1.782	3.45E-02
1170	1.78	3.50E-02
1175	1.777	3.55E-02
1180	1.775	3.60E-02
1185	1.772	3.65E-02
1190	1.77	3.70E-02
1195	1.767	3.75E-02
1200	1.764	3.81E-02
1205	1.762	3.86E-02
1210	1.759	3.91E-02
1215	1.757	3.97E-02
1220	1.754	4.02E-02
1225	1.752	4.08E-02
1230	1.749	4.13E-02
1235	1.746	4.19E-02
1240	1.744	4.25E-02
1245	1.741	4.30E-02
1250	1.738	4.36E-02
1255	1.736	4.42E-02
1260	1.733	4.48E-02
1265	1.73	4.54E-02
1270	1.727	4.60E-02
1275	1.725	4.66E-02
1280	1.722	4.72E-02
1285	1.719	4.79E-02
1290	1.716	4.85E-02
1295	1.714	4.91E-02
1300	1.711	4.98E-02
1305	1.708	5.04E-02
1310	1.705	5.11E-02
1315	1.702	5.17E-02
1320	1.7	5.24E-02
1325	1.697	5.31E-02
1330	1.694	5.38E-02
1335	1.691	5.45E-02
1340	1.688	5.52E-02
1345	1.685	5.59E-02
1350	1.682	5.66E-02
1355	1.679	5.73E-02
1360	1.676	5.80E-02
1365	1.673	5.88E-02
1370	1.67	5.95E-02
1375	1.667	6.03E-02
1380	1.664	6.10E-02
1385	1.661	6.18E-02
1390	1.658	6.26E-02
1395	1.655	6.34E-02
1400	1.652	6.42E-02
1405	1.649	6.50E-02
1410	1.646	6.58E-02
1415	1.643	6.66E-02
1420	1.64	6.74E-02
1425	1.637	6.82E-02
1430	1.634	6.91E-02
1435	1.631	6.99E-02
1440	1.627	7.08E-02
1445	1.624	7.17E-02
1450	1.621	7.25E-02
1455	1.618	7.34E-02
1460	1.615	7.43E-02
1465	1.611	7.52E-02
1470	1.608	7.61E-02
1475	1.605	7.71E-02
1480	1.602	7.80E-02
1485	1.598	7.89E-02
1490	1.595	7.99E-02
1495	1.592	8.09E-02
1500	1.588	8.18E-02
1505	1.585	8.28E-02
1510	1.582	8.38E-02
1515	1.578	8.48E-02
1520	1.575	8.58E-02
1525	1.572	8.68E-02
1530	1.568	8.79E-02
1535	1.565	8.89E-02
1540	1.561	9.00E-02
1545	1.558	9.10E-02
1550	1.554	9.21E-02
1555	1.551	9.32E-02
1560	1.547	9.43E-02
1565	1.544	9.54E-02
1570	1.54	9.65E-02
1575	1.537	9.77E-02
1580	1.533	9.88E-02
1585	1.529	1.00E-01
1590	1.526	0.1011
1595	1.522	0.1023
1600	1.519	0.1035
1605	1.515	0.1047
1610	1.511	0.1059
1615	1.507	0.1072
1620	1.504	0.1084
1625	1.5	0.1097
1630	1.496	0.111
1635	1.493	0.1122
1640	1.489	0.1135
1645	1.485	0.1149
1650	1.481	0.1162
1655	1.477	0.1175
1660	1.473	0.1189
1665	1.47	0.1203
1670	1.466	0.1216
1675	1.462	0.123
1680	1.458	0.1245
1685	1.454	0.1259
1690	1.45	0.1273
1695	1.446	0.1288
1700	1.442	0.1303
1705	1.438	0.1318
1710	1.434	0.1333
1715	1.43	0.1348
1720	1.426	0.1363
1725	1.422	0.1379
1730	1.418	0.1395
1735	1.414	0.1411
1740	1.409	0.1427
1745	1.405	0.1443
1750	1.401	0.146
1755	1.397	0.1476
1760	1.393	0.1493
1765	1.389	0.151
1770	1.384	0.1528
1775	1.38	0.1545
1780	1.376	0.1563
1785	1.371	0.158
1790	1.367	0.1599
1795	1.363	0.1617
1800	1.358	0.1635
1805	1.354	0.1654
1810	1.35	0.1673
1815	1.345	0.1692
1820	1.341	0.1711
1825	1.336	0.1731
1830	1.332	0.1751
1835	1.327	0.1771
1840	1.323	0.1791
1845	1.318	0.1811
1850	1.314	0.1832
1855	1.309	0.1853
1860	1.305	0.1874
1865	1.3	0.1896
1870	1.295	0.1917
1875	1.291	0.1939
1880	1.286	0.1962
1885	1.281	0.1984
1890	1.277	0.2007
1895	1.272	0.203
1900	1.267	0.2053
1905	1.262	0.2077
1910	1.258	0.2101
1915	1.253	0.2125
1920	1.248	0.215
1925	1.243	0.2175
1930	1.238	0.22
1935	1.233	0.2225
1940	1.228	0.2251
1945	1.223	0.2277
1950	1.218	0.2303
1955	1.213	0.233
1960	1.208	0.2357
1965	1.203	0.2385
1970	1.198	0.2413
1975	1.193	0.2441
1980	1.188	0.2469
1985	1.183	0.2498
1990	1.178	0.2527
1995	1.173	0.2557
2000	1.168	0.2587
